File name	 Run No	  Mean Incidence (deg)	  Amplitude (deg)	  Oscillation Freq. (Hz)	  Reynolds No.	 Mach No.	 Reduced Frequency 
06011001	 11001	  0	  5.4	  0.664	  766560	 0.062193	 0.053352 
06011021	 11021	  0	  10	  0.664	  766890	 0.062193	 0.053361 
06011041	 11041	  0	  12.2	  0.664	  766890	 0.062193	 0.053361 
06011061	 11061	  0	  13.8	  0.664	  758940	 0.061416	 0.054082 
06011081	 11081	  0	  17.4	  0.664	  758290	 0.061416	 0.054064 
06011101	 11101	  0	  5.4	  0.892	  1158600	 0.093518	 0.047761 
06011121	 11121	  0	  10	  0.892	  1155100	 0.093518	 0.047705 
06011141	 11141	  0	  12.2	  0.892	  1154100	 0.093518	 0.047689 
06011161	 11161	  0	  13.8	  0.892	  1150500	 0.093099	 0.047928 
06011181	 11181	  0	  17.4	  0.892	  1147500	 0.093099	 0.047879 
06011201	 11201	  0	  5.4	  0.996	  1483400	 0.1202	 0.041428 
06011221	 11221	  0	  10	  0.996	  1474500	 0.1202	 0.041331 
06011241	 11241	  0	  12.2	  0.996	  1470800	 0.1202	 0.04129 
06011261	 11261	  0	  13.8	  0.996	  1459600	 0.11908	 0.041706 
06011281	 11281	  0	  17.4	  0.996	  1453900	 0.11908	 0.041643 
06011301	 11301	  0	  5.4	  1.245	  1470900	 0.12001	 0.051729 
06011321	 11321	  0	  10	  1.245	  1460900	 0.12001	 0.051591 
06011341	 11341	  0	  12.2	  1.245	  1458400	 0.12001	 0.051557 
06011361	 11361	  0	  13.8	  1.245	  1455100	 0.11943	 0.051857 
06011381	 11381	  0	  17.4	  1.245	  1449600	 0.11943	 0.05178 
06011401	 11401	  0	  5.4	  1.494	  1453300	 0.11953	 0.062125 
06011421	 11421	  0	  10	  1.494	  1447100	 0.11953	 0.062022 
06011441	 11441	  0	  12.2	  1.494	  1444000	 0.11953	 0.06197 
06011461	 11461	  0	  13.8	  1.494	  1445800	 0.11932	 0.062152 
06011481	 11481	  0	  17.4	  1.494	  1440300	 0.11932	 0.062059 
06011501	 11501	  0	  5.4	  1.662	  1850200	 0.15264	 0.054059 
06011521	 11521	  0	  10	  1.662	  1830000	 0.15264	 0.053828 
06011541	 11541	  0	  12.2	  1.662	  1824600	 0.15264	 0.053766 
06011561	 11561	  0	  13.8	  1.662	  1830500	 0.15249	 0.053907 
06011581	 11581	  0	  17.4	  1.662	  1814500	 0.15249	 0.053722 
06012001	 12001	  10	  4	  0.245	  1496300	 0.11962	 0.010249 
06012011	 12011	  10	  6	  0.245	  1485300	 0.11962	 0.01022 
06012021	 12021	  10	  8	  0.245	  1482800	 0.11962	 0.010213 
06012031	 12031	  10	  10	  0.245	  1480300	 0.11962	 0.010206 
06012041	 12041	  10	  4	  0.612	  1482600	 0.11976	 0.025468 
06012051	 12051	  10	  6	  0.612	  1475100	 0.11976	 0.025417 
06012061	 12061	  10	  8	  0.612	  1473800	 0.11976	 0.025409 
06012071	 12071	  10	  10	  0.612	  1473200	 0.11976	 0.025405 
06012081	 12081	  10	  4	  1.224	  1481200	 0.1198	 0.050896 
06012091	 12091	  10	  6	  1.224	  1473600	 0.1198	 0.050794 
06012101	 12101	  10	  8	  1.224	  1472400	 0.1198	 0.050778 
06012111	 12111	  10	  10	  1.224	  1472400	 0.1198	 0.050778 
06012121	 12121	  10	  4	  1.836	  1460100	 0.11845	 0.077124 
06012131	 12131	  10	  6	  1.836	  1454500	 0.11845	 0.077008 
06012141	 12141	  10	  8	  1.836	  1453900	 0.11845	 0.076996 
06012151	 12151	  10	  10	  1.836	  1452700	 0.11845	 0.07697 
06012161	 12161	  10	  4	  2.448	  1468000	 0.11929	 0.10204 
06012171	 12171	  10	  6	  2.448	  1464200	 0.11929	 0.10194 
06012181	 12181	  10	  8	  2.448	  1463600	 0.11929	 0.10192 
06012191	 12191	  10	  10	  2.448	  1463000	 0.11929	 0.1019 
06012201	 12201	  10	  4	  3.06	  1461400	 0.11865	 0.12828 
06012211	 12211	  10	  6	  3.06	  1455800	 0.11865	 0.12809 
06012221	 12221	  10	  8	  3.06	  1455200	 0.11865	 0.12806 
06012231	 12231	  10	  10	  3.06	  1455200	 0.11865	 0.12806 
06012241	 12241	  10	  4	  3.673	  1459700	 0.11882	 0.1536 
06012251	 12251	  10	  6	  3.673	  1456600	 0.11882	 0.15348 
06012261	 12261	  10	  8	  3.673	  1456000	 0.11882	 0.15345 
06012271	 12271	  10	  10	  3.673	  1456600	 0.11882	 0.15348 
06012281	 12281	  10	  4	  4.286	  1463000	 0.11908	 0.17884 
06012291	 12291	  10	  6	  4.286	  1458700	 0.11908	 0.17863 
06012301	 12301	  10	  8	  4.286	  1458700	 0.11908	 0.17863 
06012311	 12311	  10	  10	  4.286	  1458000	 0.11908	 0.1786 
06012371	 12371	  3	  8	  0.245	  1486400	 0.11975	 0.010206 
06012381	 12381	  4	  8	  0.245	  1475600	 0.11975	 0.010177 
06012391	 12391	  5	  8	  0.245	  1473100	 0.11975	 0.010171 
06012401	 12401	  6	  8	  0.245	  1471200	 0.11975	 0.010166 
06012411	 12411	  7	  8	  0.245	  1469300	 0.11975	 0.010161 
06012421	 12421	  8	  8	  0.245	  1478000	 0.11939	 0.010228 
06012431	 12431	  9	  8	  0.245	  1468000	 0.11939	 0.0102 
06012441	 12441	  11	  8	  0.245	  1466100	 0.11939	 0.010195 
06012451	 12451	  12	  8	  0.245	  1464200	 0.11939	 0.01019 
06012461	 12461	  13	  8	  0.245	  1461700	 0.11939	 0.010183 
06012471	 12471	  14	  8	  0.245	  1462800	 0.11912	 0.010218 
06012481	 12481	  15	  8	  0.245	  1456600	 0.11912	 0.010201 
06012491	 12491	  17	  8	  0.245	  1454800	 0.11912	 0.010196 
06012501	 12501	  20	  8	  0.245	  1454200	 0.11912	 0.010194 
06012511	 12511	  3	  8	  0.612	  1435800	 0.11732	 0.025882 
06012521	 12521	  4	  8	  0.612	  1431600	 0.11732	 0.025852 
06012531	 12531	  5	  8	  0.612	  1430400	 0.11732	 0.025843 
06012541	 12541	  6	  8	  0.612	  1429800	 0.11732	 0.025839 
06012551	 12551	  7	  8	  0.612	  1429200	 0.11732	 0.025835 
06012561	 12561	  8	  8	  0.612	  1448700	 0.11837	 0.025652 
06012571	 12571	  9	  8	  0.612	  1447500	 0.11837	 0.025643 
06012581	 12581	  11	  8	  0.612	  1441300	 0.11837	 0.025601 
06012591	 12591	  12	  8	  0.612	  1440700	 0.11837	 0.025597 
06012601	 12601	  13	  8	  0.612	  1440100	 0.11837	 0.025592 
06012621	 12621	  15	  8	  0.612	  1438800	 0.11826	 0.025617 
06012631	 12631	  17	  8	  0.612	  1438200	 0.11826	 0.025613 
06012641	 12641	  20	  8	  0.612	  1438200	 0.11826	 0.025613 
06012651	 12651	  3	  8	  1.224	  1479100	 0.11994	 0.050785 
06012661	 12661	  4	  8	  1.224	  1473500	 0.11994	 0.050709 
06012671	 12671	  5	  8	  1.224	  1472800	 0.11994	 0.050701 
06012681	 12681	  6	  8	  1.224	  1472200	 0.11994	 0.050692 
06012691	 12691	  7	  8	  1.224	  1449900	 0.11942	 0.050692 
06012701	 12701	  8	  8	  1.224	  1450800	 0.11914	 0.05087 
06012711	 12711	  9	  8	  1.224	  1447100	 0.11914	 0.050819 
06012721	 12721	  11	  8	  1.224	  1446500	 0.11914	 0.050811 
06012731	 12731	  12	  8	  1.224	  1446500	 0.11914	 0.050811 
06012741	 12741	  13	  8	  1.224	  1445900	 0.11914	 0.050803 
06012751	 12751	  14	  8	  1.224	  1450400	 0.11891	 0.051001 
06012761	 12761	  15	  8	  1.224	  1444900	 0.11891	 0.050926 
06012771	 12771	  17	  8	  1.224	  1444300	 0.11891	 0.050917 
06012781	 12781	  20	  8	  1.224	  1443100	 0.11891	 0.050901 
06012791	 12791	  3	  8	  1.836	  1479800	 0.11927	 0.07678 
06012801	 12801	  4	  8	  1.836	  1471000	 0.11927	 0.076601 
06012811	 12811	  5	  8	  1.836	  1469700	 0.11927	 0.076575 
06012821	 12821	  6	  8	  1.836	  1468500	 0.11927	 0.07655 
06012831	 12831	  7	  8	  1.836	  1467800	 0.11927	 0.076537 
06012841	 12841	  8	  8	  1.836	  1478700	 0.1197	 0.076379 
06012851	 12851	  9	  8	  1.836	  1473100	 0.1197	 0.076264 
06012861	 12861	  11	  8	  1.836	  1471800	 0.1197	 0.076239 
06012871	 12871	  12	  8	  1.836	  1471200	 0.1197	 0.076226 
06012881	 12881	  13	  8	  1.836	  1470600	 0.1197	 0.076214 
06012891	 12891	  14	  8	  1.836	  1474700	 0.11952	 0.076454 
06012901	 12901	  15	  8	  1.836	  1467800	 0.11952	 0.076314 
06012911	 12911	  17	  8	  1.836	  1467800	 0.11952	 0.076314 
06012921	 12921	  20	  8	  1.836	  1467100	 0.11952	 0.076302 
06012931	 12931	  3	  8	  2.448	  1462500	 0.11889	 0.10236 
06012941	 12941	  4	  8	  2.448	  1459400	 0.11889	 0.10228 
06012951	 12951	  5	  8	  2.448	  1458700	 0.11889	 0.10226 
06012961	 12961	  6	  8	  2.448	  1457500	 0.11889	 0.10223 
06012971	 12971	  7	  8	  2.448	  1456900	 0.11889	 0.10221 
06012981	 12981	  8	  8	  2.448	  1460100	 0.11875	 0.10247 
06012991	 12991	  9	  8	  2.448	  1455200	 0.11875	 0.10233 
06013001	 13001	  11	  8	  2.448	  1455200	 0.11875	 0.10233 
06013011	 13011	  12	  8	  2.448	  1454500	 0.11875	 0.10231 
06013021	 13021	  13	  8	  2.448	  1453300	 0.11875	 0.10228 
06013031	 13031	  14	  8	  2.448	  1461400	 0.11906	 0.10214 
06013041	 13041	  15	  8	  2.448	  1457100	 0.11906	 0.10202 
06013051	 13051	  17	  8	  2.448	  1457100	 0.11906	 0.10202 
06013061	 13061	  20	  8	  2.448	  1456400	 0.11906	 0.102 
06013071	 13071	  3	  8	  3.06	  1453800	 0.11854	 0.12819 
06013081	 13081	  4	  8	  3.06	  1450100	 0.11854	 0.12806 
06013091	 13091	  5	  8	  3.06	  1450100	 0.11854	 0.12806 
06013101	 13101	  6	  8	  3.06	  1449500	 0.11854	 0.12804 
06013111	 13111	  7	  8	  3.06	  1448200	 0.11854	 0.128 
06013121	 13121	  8	  8	  3.06	  1448200	 0.11854	 0.128 
06013131	 13131	  9	  8	  3.06	  1448200	 0.11854	 0.128 
06013141	 13141	  11	  8	  3.06	  1447900	 0.11826	 0.1284 
06013151	 13151	  12	  8	  3.06	  1445500	 0.11826	 0.12831 
06013161	 13161	  13	  8	  3.06	  1444900	 0.11826	 0.12829 
06013171	 13171	  14	  8	  3.06	  1444900	 0.11826	 0.12829 
06013181	 13181	  15	  8	  3.06	  1443700	 0.11826	 0.12825 
06013191	 13191	  17	  8	  3.06	  1443700	 0.11826	 0.12825 
06013201	 13201	  20	  8	  3.06	  1443100	 0.11826	 0.12823 
06013211	 13211	  3	  8	  3.673	  1460400	 0.11852	 0.15417 
06013221	 13221	  4	  8	  3.673	  1454800	 0.11852	 0.15394 
06013231	 13231	  5	  8	  3.673	  1454200	 0.11852	 0.15391 
06013241	 13241	  6	  8	  3.673	  1453600	 0.11852	 0.15389 
06013251	 13251	  7	  8	  3.673	  1453000	 0.11852	 0.15386 
06013261	 13261	  8	  8	  3.673	  1453000	 0.11852	 0.15386 
06013271	 13271	  9	  8	  3.673	  1452400	 0.11852	 0.15383 
06013281	 13281	  11	  8	  3.673	  1468100	 0.11955	 0.15264 
06013291	 13291	  12	  8	  3.673	  1464900	 0.11955	 0.15251 
06013301	 13301	  13	  8	  3.673	  1464900	 0.11955	 0.15251 
06013311	 13311	  14	  8	  3.673	  1463100	 0.11955	 0.15244 
06013321	 13321	  15	  8	  3.673	  1463100	 0.11955	 0.15244 
06013331	 13331	  17	  8	  3.673	  1463100	 0.11955	 0.15244 
06013341	 13341	  20	  8	  3.673	  1462500	 0.11955	 0.15241 
06013351	 13351	  3	  8	  4.286	  1468000	 0.11974	 0.17771 
06013361	 13361	  4	  8	  4.286	  1464800	 0.11974	 0.17756 
06013371	 13371	  5	  8	  4.286	  1464200	 0.11974	 0.17753 
06013381	 13381	  6	  8	  4.286	  1464200	 0.11974	 0.17753 
06013391	 13391	  7	  8	  4.286	  1463600	 0.11974	 0.1775 
06013401	 13401	  8	  8	  4.286	  1463600	 0.11974	 0.1775 
06013411	 13411	  9	  8	  4.286	  1463000	 0.11974	 0.17747 
06013421	 13421	  11	  8	  4.286	  1472400	 0.12021	 0.17696 
06013431	 13431	  12	  8	  4.286	  1469300	 0.12021	 0.17681 
06013441	 13441	  13	  8	  4.286	  1468700	 0.12021	 0.17678 
06013451	 13451	  14	  8	  4.286	  1468700	 0.12021	 0.17678 
06013461	 13461	  15	  8	  4.286	  1468100	 0.12021	 0.17675 
06013471	 13471	  17	  8	  4.286	  1467400	 0.12021	 0.17672 
06013481	 13481	  20	  8	  4.286	  1467400	 0.12021	 0.17672 
06013631	 13631	  7	  8	  1.632	  986710	 0.079804	 0.10187 
06013641	 13641	  8	  8	  1.632	  985450	 0.079804	 0.10182 
06013651	 13651	  9	  8	  1.632	  985450	 0.079804	 0.10182 
06013661	 13661	  10	  8	  1.632	  985030	 0.079804	 0.1018 
06013671	 13671	  11	  8	  1.632	  984610	 0.079804	 0.10178 
06013681	 13681	  12	  8	  1.632	  984610	 0.079804	 0.10178 
06013691	 13691	  13	  8	  1.632	  987230	 0.079949	 0.10163 
06013701	 13701	  14	  8	  1.632	  986810	 0.079949	 0.10162 
06013711	 13711	  15	  8	  1.632	  986810	 0.079949	 0.10162 
06013721	 13721	  17	  8	  1.632	  986390	 0.079949	 0.1016 
06013731	 13731	  20	  8	  1.632	  986810	 0.079949	 0.10162 
06013741	 13741	  7	  8	  3.265	  1848200	 0.15088	 0.1074 
06013751	 13751	  8	  8	  3.265	  1834200	 0.15088	 0.10708 
06013761	 13761	  9	  8	  3.265	  1832600	 0.15088	 0.10704 
06013771	 13771	  10	  8	  3.265	  1831800	 0.15088	 0.10703 
06013781	 13781	  11	  8	  3.265	  1830300	 0.15088	 0.10699 
06013791	 13791	  12	  8	  3.265	  1829500	 0.15088	 0.10697 
06013811	 13811	  13	  8	  3.257	  1845200	 0.15134	 0.10662 
06013821	 13821	  14	  8	  3.265	  1832800	 0.15134	 0.1066 
06013831	 13831	  15	  8	  3.265	  1831200	 0.15134	 0.10656 
06013841	 13841	  17	  8	  3.265	  1829700	 0.15134	 0.10653 
06013851	 13851	  20	  8	  3.265	  1828900	 0.15134	 0.10651 
06013871	 13871	  4	  10	  0.245	  1465500	 0.11858	 0.010291 
06013881	 13881	  6	  10	  0.245	  1457400	 0.11858	 0.010268 
06013891	 13891	  8	  10	  0.245	  1454900	 0.11858	 0.010261 
06013901	 13901	  15	  10	  0.245	  1453100	 0.11858	 0.010256 
06013911	 13911	  20	  10	  0.245	  1451200	 0.11858	 0.010251 
06013921	 13921	  4	  10	  0.612	  1461300	 0.1192	 0.02549 
06013931	 13931	  6	  10	  0.612	  1456400	 0.1192	 0.025456 
06013941	 13941	  8	  10	  0.612	  1455200	 0.1192	 0.025447 
06013951	 13951	  15	  10	  0.612	  1454600	 0.1192	 0.025443 
06013961	 13961	  20	  10	  0.612	  1453900	 0.1192	 0.025439 
06013971	 13971	  4	  10	  1.224	  1461800	 0.11955	 0.050782 
06013981	 13981	  6	  10	  1.224	  1457500	 0.11955	 0.050723 
06013991	 13991	  8	  10	  1.224	  1456900	 0.11955	 0.050715 
06014001	 14001	  15	  10	  1.224	  1456300	 0.11955	 0.050706 
06014011	 14011	  20	  10	  1.224	  1456300	 0.11955	 0.050706 
06014021	 14021	  4	  10	  1.836	  1457600	 0.11941	 0.076213 
06014031	 14031	  6	  10	  1.836	  1453900	 0.11941	 0.076138 
06014041	 14041	  8	  10	  1.836	  1453900	 0.11941	 0.076138 
06014051	 14051	  15	  10	  1.836	  1452700	 0.11941	 0.076112 
06014061	 14061	  20	  10	  1.836	  1453300	 0.11941	 0.076125 
06014071	 14071	  4	  10	  2.448	  1454800	 0.11907	 0.10193 
06014081	 14081	  6	  10	  2.448	  1449900	 0.11907	 0.1018 
06014091	 14091	  8	  10	  2.448	  1449300	 0.11907	 0.10178 
06014101	 14101	  15	  10	  2.448	  1449300	 0.11907	 0.10178 
06014111	 14111	  20	  10	  2.448	  1448700	 0.11907	 0.10177 
06014121	 14121	  4	  10	  3.06	  1457300	 0.11822	 0.12879 
06014131	 14131	  6	  10	  3.06	  1451700	 0.11822	 0.1286 
06014141	 14141	  8	  10	  3.06	  1451100	 0.11822	 0.12858 
06014151	 14151	  15	  10	  3.06	  1451100	 0.11822	 0.12858 
06014161	 14161	  20	  10	  3.06	  1449800	 0.11822	 0.12853 
06014171	 14171	  4	  10	  3.673	  1470200	 0.11967	 0.15251 
06014181	 14181	  6	  10	  3.673	  1467100	 0.11967	 0.15238 
06014191	 14191	  8	  10	  3.673	  1466500	 0.11967	 0.15235 
06014201	 14201	  15	  10	  3.673	  1465800	 0.11967	 0.15233 
06014211	 14211	  20	  10	  3.673	  1465800	 0.11967	 0.15233 
06014221	 14221	  4	  10	  4.286	  1457400	 0.11863	 0.17953 
06014231	 14231	  6	  10	  4.286	  1452400	 0.11863	 0.17929 
06014241	 14241	  8	  10	  4.286	  1451800	 0.11863	 0.17926 
06014251	 14251	  15	  10	  4.286	  1452400	 0.11863	 0.17929 
06014261	 14261	  20	  10	  4.286	  1451800	 0.11863	 0.17926 
06014272	 14272	  0	  2	  1	  1506300	 0.11993	 0.041844 
06014282	 14282	  4	  2	  1	  1499100	 0.11993	 0.041766 
06014292	 14292	  4	  4	  1	  1497100	 0.11993	 0.041745 
06014302	 14302	  0	  4	  1	  1495800	 0.11993	 0.041731 
06014312	 14312	  0	  2	  2.5	  1497100	 0.11972	 0.10461 
06014322	 14322	  4	  2	  2.5	  1492000	 0.11972	 0.10447 
06014332	 14332	  4	  4	  2.5	  1491300	 0.11972	 0.10446 
06014342	 14342	  0	  4	  2.5	  1490700	 0.11972	 0.10444 
06014352	 14352	  0	  2	  4.955	  1483600	 0.11879	 0.20886 
06014372	 14372	  4	  4	  4.955	  1477800	 0.11879	 0.20854 
06014382	 14382	  0	  4	  4.955	  1477200	 0.11879	 0.20851 
06014391	 14391	  0	  2	  7.433	  1495600	 0.1197	 0.31098 
06014401	 14401	  4	  2	  7.334	  1487200	 0.1197	 0.30617 
06014411	 14411	  4	  4	  7.433	  1487200	 0.1197	 0.3103 
06014421	 14421	  0	  4	  7.433	  1486000	 0.1197	 0.3102 
06014432	 14432	  0	  2	  9.822	  1492700	 0.11968	 0.41074 
06014442	 14442	  4	  2	  9.822	  1486900	 0.11968	 0.41011 
06014452	 14452	  4	  4	  9.822	  1486300	 0.11968	 0.41005 
06014462	 14462	  0	  4	  9.822	  1485700	 0.11968	 0.40998 
06019001	 19001	  0	  22.6	  0.664	  763930	 0.061686	 0.053891 
06019021	 19021	  0	  32.8	  0.664	  763600	 0.061686	 0.053882 
06019041	 19041	  0	  22.6	  0.892	  1161900	 0.094106	 0.047399 
06019061	 19061	  0	  32.8	  0.892	  1159400	 0.094106	 0.047359 
06019081	 19081	  0	  22.6	  0.996	  1463600	 0.11961	 0.041492 
06019101	 19101	  0	  32.8	  0.996	  1457300	 0.11961	 0.041423 
06019121	 19121	  0	  22.6	  1.245	  1450800	 0.11923	 0.051921 
06019141	 19141	  0	  32.8	  1.245	  1444600	 0.11923	 0.051835 
06019161	 19161	  0	  22.6	  1.494	  1445600	 0.11941	 0.062085 
06019181	 19181	  0	  32.8	  1.494	  1440700	 0.11941	 0.062003 
06019201	 19201	  0	  22.6	  1.662	  1819100	 0.15205	 0.053993 
06019221	 19221	  0	  32.8	  1.662	  1801700	 0.15205	 0.05379 
06019301	 19301	  0	  5.4	  1.875	  1439700	 0.11882	 0.078331 
06019321	 19321	  0	  10	  1.875	  1432400	 0.11882	 0.078175 
06019341	 19341	  0	  12.2	  1.875	  1430600	 0.11882	 0.078136 
06019361	 19361	  0	  13.8	  1.875	  1437500	 0.11904	 0.078084 
06019381	 19381	  0	  17.4	  1.875	  1432000	 0.11904	 0.077968 
06019401	 19401	  0	  22.6	  1.875	  1430200	 0.11904	 0.077929 
06019421	 19421	  0	  32.8	  1.875	  1429600	 0.11904	 0.077916 
06019441	 19441	  0	  5.4	  0.488	  1456200	 0.11881	 0.020482 
06019461	 19461	  0	  10	  0.488	  1446900	 0.11881	 0.02043 
06019481	 19481	  0	  12.2	  0.488	  1443200	 0.11881	 0.02041 
06019501	 19501	  0	  13.8	  0.488	  1443800	 0.11865	 0.02045 
06019521	 19521	  0	  17.4	  0.488	  1436400	 0.11865	 0.020409 
06019541	 19541	  0	  22.6	  0.488	  1433400	 0.11865	 0.020392 
06019561	 19561	  0	  32.8	  0.488	  1431600	 0.11865	 0.020382 
06411601	 11601	  180	  0.4	  1.306	  1449500	 0.11887	 0.054674 
06411611	 11611	  180	  6	  1.306	  1441500	 0.11887	 0.054556 
06411621	 11621	  180	  8	  1.306	  1440900	 0.11887	 0.054547 
06411631	 11631	  180	  10	  1.306	  1440300	 0.11887	 0.054538 
06411661	 11661	  180	  0.4	  1.633	  1437800	 0.11806	 0.068796 
06411671	 11671	  180	  6	  1.633	  1432300	 0.11806	 0.068693 
06411681	 11681	  180	  8	  1.633	  1431700	 0.11806	 0.068682 
06411691	 11691	  180	  10	  1.633	  1431100	 0.11806	 0.068671 
06411721	 11721	  180	  0.4	  1.959	  1451800	 0.11911	 0.081836 
06411731	 11731	  180	  6	  1.959	  1445600	 0.11911	 0.0817 
06411741	 11741	  180	  8	  1.959	  1445000	 0.11911	 0.081686 
06411751	 11751	  180	  10	  1.959	  1444400	 0.11911	 0.081672 
